File: Datasets/Mendeley/MND_002.txt
#FORMAT      : EMSA/MAS Spectral Data File
#VERSION     : 1.0
#TITLE       : Spectrum 139
#DATE        : 19-APR-2019
#TIME        : 18:59
#OWNER       :
#NPOINTS     : 2048.0
#NCOLUMNS    : 1.0
#XUNITS      : keV
#YUNITS      : counts
#DATATYPE    : XY
#XPERCHAN    : 0.005
#OFFSET      : -0.1
#SIGNALTYPE  : EDS
#CHOFFSET    : 20.0
#LIVETIME    : 60.0264
#REALTIME    : 62.5149
#BEAMKV      : 10.0
#MAGCAM      : 2000.0
#XTILTSTGE   : 0.0
#AZIMANGLE   : 0.0
#ELEVANGLE   : 35.0
#XPOSITION mm: -10.3938
#YPOSITION mm: -9.5002
#ZPOSITION mm: 6.0001
##OXINSTPT   : 4
##OXINSTSTROB: 53.24
##OXINSTELEMS: 6,8,20,38
##OXINSTLABEL: 6, 0.277, C K?1_2
##OXINSTLABEL: 8, 0.525, O K?1
##OXINSTLABEL: 20, 3.692, Ca K?1
##OXINSTLABEL: 20, 4.013, Ca K?1
##OXINSTLABEL: 20, 0.341, Ca L?1,2
##OXINSTLABEL: 20, 0.303, Ca Ll
##OXINSTLABEL: 38, 1.807, Sr L?1
##OXINSTLABEL: 38, 1.649, Sr L?
##OXINSTLABEL: 38, 1.582, Sr Ll
##OXINSTLABEL: 38, 0.114, Sr M?
#SPECTRUM    : Spectral Data Starts Here
-0.10000, 0.0
-0.06500, 3.0
-0.03000, 156.0
0.00500, 791.0
0.04000, 1437.0
0.07500, 745.0
0.11000, 43.0
0.14500, 22.0
0.18000, 26.0
0.21500, 68.0
0.25000, 329.0
0.28500, 387.0
0.32000, 81.0
0.35500, 16.0
0.39000, 12.0
0.42500, 12.0
0.46000, 22.0
0.49500, 88.0
0.53000, 111.0
0.56500, 50.0
0.60000, 11.0
0.63500, 8.0
0.67000, 15.0
0.70500, 10.0
0.74000, 20.0
0.77500, 10.0
0.81000, 11.0
0.84500, 15.0
0.88000, 19.0
0.91500, 14.0
0.95000, 13.0
0.98500, 17.0
1.02000, 22.0
1.05500, 25.0
1.09000, 23.0
1.12500, 23.0
1.16000, 26.0
1.19500, 26.0
1.23000, 32.0
1.26500, 33.0
1.30000, 39.0
1.33500, 33.0
1.37000, 38.0
1.40500, 49.0
1.44000, 46.0
1.47500, 47.0
1.51000, 50.0
1.54500, 66.0
1.58000, 68.0
1.61500, 74.0
1.65000, 65.0
1.68500, 58.0
1.72000, 70.0
1.75500, 115.0
1.79000, 150.0
1.82500, 201.0
1.86000, 160.0
1.89500, 119.0
1.93000, 114.0
1.96500, 98.0
2.00000, 163.0
2.03500, 311.0
2.07000, 330.0
2.10500, 275.0
2.14000, 225.0
2.17500, 151.0
2.21000, 72.0
2.24500, 53.0
2.28000, 57.0
2.31500, 64.0
2.35000, 74.0
2.38500, 54.0
2.42000, 49.0
2.45500, 52.0
2.49000, 54.0
2.52500, 51.0
2.56000, 58.0
2.59500, 50.0
2.63000, 56.0
2.66500, 56.0
2.70000, 49.0
2.73500, 53.0
2.77000, 65.0
2.80500, 112.0
2.84000, 117.0
2.87500, 112.0
2.91000, 78.0
2.94500, 71.0
2.98000, 80.0
3.01500, 78.0
3.05000, 69.0
3.08500, 66.0
3.12000, 66.0
3.15500, 56.0
3.19000, 50.0
3.22500, 52.0
3.26000, 57.0
3.29500, 52.0
3.33000, 54.0
3.36500, 49.0
3.40000, 47.0
3.43500, 46.0
3.47000, 35.0
3.50500, 48.0
3.54000, 71.0
3.57500, 102.0
3.61000, 286.0
3.64500, 760.0
3.68000, 1295.0
3.71500, 1237.0
3.75000, 666.0
3.78500, 235.0
3.82000, 83.0
3.85500, 50.0
3.89000, 47.0
3.92500, 65.0
3.96000, 109.0
3.99500, 181.0
4.03000, 201.0
4.06500, 116.0
4.10000, 55.0
4.13500, 34.0
4.17000, 25.0
4.20500, 27.0
4.24000, 22.0
4.27500, 26.0
4.31000, 31.0
4.34500, 24.0
4.38000, 32.0
4.41500, 29.0
4.45000, 22.0
4.48500, 21.0
4.52000, 26.0
4.55500, 25.0
4.59000, 22.0
4.62500, 29.0
4.66000, 32.0
4.69500, 20.0
4.73000, 24.0
4.76500, 26.0
4.80000, 21.0
4.83500, 22.0
4.87000, 21.0
4.90500, 24.0
4.94000, 23.0
4.97500, 21.0
5.01000, 21.0
5.04500, 24.0
5.08000, 16.0
5.11500, 23.0
5.15000, 19.0
5.18500, 24.0
5.22000, 23.0
5.25500, 20.0
5.29000, 23.0
5.32500, 18.0
5.36000, 21.0
5.39500, 21.0
5.43000, 20.0
5.46500, 24.0
5.50000, 18.0
5.53500, 22.0
5.57000, 21.0
5.60500, 19.0
5.64000, 21.0
5.67500, 25.0
5.71000, 22.0
5.74500, 20.0
5.78000, 20.0
5.81500, 19.0
5.85000, 20.0
5.88500, 20.0
5.92000, 20.0
5.95500, 21.0
5.99000, 23.0
6.02500, 21.0
6.06000, 16.0
6.09500, 18.0
6.13000, 18.0
6.16500, 17.0
6.20000, 16.0
6.23500, 23.0
6.27000, 22.0
6.30500, 18.0
6.34000, 16.0
6.37500, 19.0
6.41000, 14.0
6.44500, 12.0
6.48000, 19.0
6.51500, 21.0
6.55000, 19.0
6.58500, 13.0
6.62000, 19.0
6.65500, 17.0
6.69000, 16.0
6.72500, 12.0
6.76000, 12.0
6.79500, 18.0
6.83000, 12.0
6.86500, 14.0
6.90000, 13.0
6.93500, 11.0
6.97000, 14.0
7.00500, 19.0
7.04000, 19.0
7.07500, 11.0
7.11000, 8.0
7.14500, 9.0
7.18000, 11.0
7.21500, 11.0
7.25000, 15.0
7.28500, 14.0
7.32000, 9.0
7.35500, 14.0
7.39000, 15.0
7.42500, 11.0
7.46000, 8.0
7.49500, 18.0
7.53000, 13.0
7.56500, 8.0
7.60000, 12.0
7.63500, 8.0
7.67000, 10.0
7.70500, 14.0
7.74000, 14.0
7.77500, 17.0
7.81000, 10.0
7.84500, 10.0
7.88000, 10.0
7.91500, 9.0
7.95000, 13.0
7.98500, 6.0
8.02000, 7.0
8.05500, 13.0
8.09000, 6.0
8.12500, 5.0
8.16000, 11.0
8.19500, 10.0
8.23000, 6.0
8.26500, 9.0
8.30000, 8.0
8.33500, 15.0
8.37000, 8.0
8.40500, 4.0
8.44000, 8.0
8.47500, 9.0
8.51000, 9.0
8.54500, 9.0
8.58000, 5.0
8.61500, 6.0
8.65000, 5.0
8.68500, 3.0
8.72000, 7.0
8.75500, 8.0
8.79000, 3.0
8.82500, 7.0
8.86000, 5.0
8.89500, 3.0
8.93000, 5.0
8.96500, 4.0
9.00000, 6.0
9.03500, 7.0
9.07000, 6.0
9.10500, 7.0
9.14000, 4.0
9.17500, 6.0
9.21000, 4.0
9.24500, 2.0
9.28000, 4.0
9.31500, 6.0
9.35000, 5.0
9.38500, 4.0
9.42000, 5.0
9.45500, 3.0
9.49000, 3.0
9.52500, 4.0
9.56000, 4.0
9.59500, 2.0
9.63000, 4.0
9.66500, 3.0
9.70000, 3.0
9.73500, 7.0
9.77000, 2.0
9.80500, 2.0
9.84000, 0.0
9.87500, 2.0
9.91000, 0.0
9.94500, 0.0
9.98000, 0.0
10.01500, 0.0
10.05000, 0.0
10.08500, 0.0
10.12000, 0.0
10.13500, 0.0
#ENDOFDATA   :